 #  Results from PENEPMA.
 #  Probability of emission of bremmstrahlung photons.
 #  1st column: E (eV).
 #  2nd and 3rd columns: probability density and STU (1/(eV*sr*electron)).

   5.250001E+01  5.790471E-07  2.032815E-09
   5.750001E+01  5.131515E-07  1.771850E-09
   6.250001E+01  4.590313E-07  1.475057E-09
   6.750001E+01  4.168417E-07  1.405243E-09
   7.250001E+01  3.812388E-07  1.295566E-09
   7.750001E+01  3.527712E-07  1.310983E-09
   8.250001E+01  3.278234E-07  1.283851E-09
   8.750001E+01  3.057279E-07  1.256087E-09
   9.250001E+01  2.846135E-07  1.125001E-09
   9.750001E+01  2.678859E-07  1.166525E-09
   1.025000E+02  2.529126E-07  1.139695E-09
   1.075000E+02  2.389552E-07  1.057928E-09
   1.125000E+02  2.269363E-07  1.037892E-09
   1.175000E+02  2.158493E-07  1.004717E-09
   1.225000E+02  2.052930E-07  8.931058E-10
   1.275000E+02  1.974819E-07  1.035203E-09
   1.325000E+02  1.880519E-07  8.912352E-10
   1.375000E+02  1.803869E-07  8.793702E-10
   1.425000E+02  1.728016E-07  7.879044E-10
   1.475000E+02  1.661276E-07  7.574819E-10
   1.525000E+02  1.607204E-07  8.467193E-10
   1.575000E+02  1.551704E-07  8.538647E-10
   1.625000E+02  1.495117E-07  7.810140E-10
   1.675000E+02  1.444583E-07  7.591559E-10
   1.725000E+02  1.397690E-07  7.498554E-10
   1.775000E+02  1.357861E-07  7.919875E-10
   1.825000E+02  1.315667E-07  7.532295E-10
   1.875000E+02  1.274457E-07  7.077998E-10
   1.925000E+02  1.232861E-07  6.129343E-10
   1.975000E+02  1.205229E-07  7.297253E-10
   2.025000E+02  1.169453E-07  6.781145E-10
   2.075000E+02  1.139453E-07  6.872730E-10
   2.125000E+02  1.106771E-07  6.269912E-10
   2.175000E+02  1.080101E-07  6.369024E-10
   2.225000E+02  1.051922E-07  6.209146E-10
   2.275000E+02  1.029390E-07  6.761505E-10
   2.325000E+02  1.003075E-07  6.041180E-10
   2.375000E+02  9.799022E-08  6.091422E-10
   2.425000E+02  9.574102E-08  6.248287E-10
   2.475000E+02  9.354766E-08  5.976763E-10
   2.525000E+02  9.140444E-08  5.862980E-10
   2.575000E+02  8.951513E-08  5.746297E-10
   2.625000E+02  8.811503E-08  6.644649E-10
   2.675000E+02  8.587829E-08  5.741272E-10
   2.725000E+02  8.422762E-08  5.681509E-10
   2.775000E+02  8.239528E-08  5.502715E-10
   2.825000E+02  8.051716E-08  4.660313E-10
   2.875000E+02  7.948794E-08  5.899945E-10
   2.925000E+02  7.754997E-08  4.860947E-10
   2.975000E+02  7.633351E-08  5.432998E-10
   3.025000E+02  7.507727E-08  5.430684E-10
   3.075000E+02  7.359619E-08  5.306459E-10
   3.125000E+02  7.201637E-08  4.500884E-10
   3.175000E+02  7.113458E-08  5.424395E-10
   3.225000E+02  7.016263E-08  5.773849E-10
   3.275000E+02  6.870981E-08  5.108360E-10
   3.325000E+02  6.766781E-08  5.233904E-10
   3.375000E+02  6.640518E-08  4.841052E-10
   3.425000E+02  6.537619E-08  4.972620E-10
   3.475000E+02  6.454143E-08  5.473962E-10
   3.525000E+02  6.329034E-08  4.766835E-10
   3.575000E+02  6.237473E-08  5.033463E-10
   3.625000E+02  6.138036E-08  4.763704E-10
   3.675000E+02  6.061748E-08  5.030726E-10
   3.725000E+02  5.924973E-08  3.844968E-10
   3.775000E+02  5.855435E-08  4.170539E-10
   3.825000E+02  5.767274E-08  4.089883E-10
   3.875000E+02  5.690753E-08  4.471195E-10
   3.925000E+02  5.599754E-08  3.837684E-10
   3.975000E+02  5.528685E-08  4.084354E-10
   4.025000E+02  5.464045E-08  4.467232E-10
   4.075000E+02  5.367382E-08  3.566495E-10
   4.125000E+02  5.303729E-08  3.830874E-10
   4.175000E+02  5.239874E-08  3.743027E-10
   4.225000E+02  5.171911E-08  4.077207E-10
   4.275000E+02  5.102382E-08  3.994149E-10
   4.325000E+02  5.018256E-08  3.269864E-10
   4.375000E+02  4.964535E-08  3.557356E-10
   4.425000E+02  4.921966E-08  4.071617E-10
   4.475000E+02  4.850790E-08  3.821032E-10
   4.525000E+02  4.785817E-08  3.552544E-10
   4.575000E+02  4.734437E-08  3.731847E-10
   4.625000E+02  4.669822E-08  3.455870E-10
   4.675000E+02  4.624108E-08  3.548478E-10
   4.725000E+02  4.562381E-08  3.257573E-10
   4.775000E+02  4.502329E-08  3.256480E-10
   4.825000E+02  4.475065E-08  3.980705E-10
   4.875000E+02  4.415113E-08  3.634668E-10
   4.925000E+02  4.350649E-08  3.043831E-10
   4.975000E+02  4.291309E-08  3.042247E-10
   5.025001E+02  4.256572E-08  3.249622E-10
   5.075001E+02  4.192686E-08  2.441039E-10
   5.125001E+02  4.175550E-08  3.346901E-10
   5.175001E+02  4.112550E-08  3.037015E-10
   5.225001E+02  4.079067E-08  3.142381E-10
   5.275001E+02  4.027693E-08  2.810578E-10
   5.325001E+02  3.989271E-08  2.924254E-10
   5.375001E+02  3.953254E-08  3.242118E-10
   5.425001E+02  3.912629E-08  3.137706E-10
   5.475001E+02  3.868076E-08  2.920012E-10
   5.525001E+02  3.815917E-08  2.140612E-10
   5.575001E+02  3.773761E-08  2.287151E-10
   5.625001E+02  3.750006E-08  2.801837E-10
   5.675001E+02  3.705055E-08  2.284566E-10
   5.725001E+02  3.673972E-08  2.799664E-10
   5.775001E+02  3.623180E-08  1.799617E-10
   5.825001E+02  3.597181E-08  2.280526E-10
   5.875001E+02  3.575403E-08  2.911665E-10
   5.925001E+02  3.532071E-08  2.417684E-10
   5.975001E+02  3.505322E-08  2.674381E-10
   6.025001E+02  3.456472E-08  1.791789E-10
   6.075001E+02  3.452693E-08  3.125478E-10
   6.125001E+02  3.409743E-08  2.671818E-10
   6.175001E+02  3.363701E-08  1.961918E-10
   6.225001E+02  3.329904E-08  1.960637E-10
   6.275001E+02  3.303737E-08  2.120282E-10
   6.325001E+02  3.274346E-08  1.782807E-10
   6.375001E+02  3.256021E-08  2.540662E-10
   6.425001E+02  3.225148E-08  2.539475E-10
   6.475001E+02  3.186103E-08  1.583829E-10
   6.525001E+02  3.164984E-08  1.953276E-10
   6.575001E+02  3.142048E-08  2.263432E-10
   6.625001E+02  3.114459E-08  2.262355E-10
   6.675001E+02  3.095603E-08  2.782180E-10
   6.725001E+02  3.062441E-08  1.948828E-10
   6.775001E+02  3.029589E-08  1.575047E-10
   6.825001E+02  3.005163E-08  2.108056E-10
   6.875001E+02  2.979106E-08  1.769259E-10
   6.925001E+02  2.961805E-08  1.944651E-10
   6.975001E+02  2.929870E-08  1.569712E-10
   7.025001E+02  2.903475E-08  1.568137E-10
   7.075001E+02  2.881881E-08  1.567062E-10
   7.125001E+02  2.874610E-08  2.528091E-10
   7.175001E+02  2.848809E-08  2.393665E-10
   7.225001E+02  2.829186E-08  2.526308E-10
   7.275001E+02  2.795967E-08  1.759677E-10
   7.325001E+02  2.781359E-08  2.249772E-10
   7.375001E+02  2.759806E-08  2.249043E-10
   7.425001E+02  2.726998E-08  1.558614E-10
   7.475001E+02  2.722923E-08  2.522577E-10
   7.525001E+02  2.685210E-08  1.329025E-10
   7.575001E+02  2.669699E-08  1.931636E-10
   7.625001E+02  2.643667E-08  1.554331E-10
   7.675001E+02  2.625382E-08  1.553083E-10
   7.725001E+02  2.612726E-08  1.750898E-10
   7.775001E+02  2.586839E-08  1.550950E-10
   7.825001E+02  2.578351E-08  2.242173E-10
   7.875001E+02  2.548476E-08  1.320330E-10
   7.925001E+02  2.531672E-08  1.746902E-10
   7.975001E+02  2.514256E-08  1.746073E-10
   8.025001E+02  2.503063E-08  2.087949E-10
   8.075001E+02  2.473222E-08  1.036552E-10
   8.125001E+02  2.455425E-08  1.544060E-10
   8.175001E+02  2.439028E-08  1.313552E-10
   8.225001E+02  2.419735E-08  1.312252E-10
   8.275001E+02  2.405167E-08  1.541195E-10
   8.325001E+02  2.391095E-08  1.310226E-10
   8.375001E+02  2.377241E-08  1.739436E-10
   8.425001E+02  2.364368E-08  2.082333E-10
   8.475001E+02  2.337471E-08  1.306848E-10
   8.525001E+02  2.324931E-08  1.536893E-10
   8.575001E+02  2.309464E-08  1.736188E-10
   8.625001E+02  2.296813E-08  1.735817E-10
   8.675001E+02  2.277407E-08  1.303126E-10
   8.725001E+02  2.265448E-08  1.533230E-10
   8.775001E+02  2.241924E-08  1.017553E-10
   8.825001E+02  2.232074E-08  1.299742E-10
   8.875001E+02  2.206156E-08  6.111816E-11
   8.925001E+02  2.203780E-08  1.529885E-10
   8.975001E+02  2.185208E-08  1.528810E-10
   9.025001E+02  2.172479E-08  1.295992E-10
   9.075001E+02  2.167341E-08  1.909457E-10
   9.125001E+02  2.150881E-08  1.526925E-10
   9.175001E+02  2.129957E-08  1.008529E-10
   9.225001E+02  2.113738E-08  1.006728E-10
   9.275001E+02  2.104597E-08  1.524403E-10
   9.325001E+02  2.084896E-08  5.940177E-11
   9.375001E+02  2.075245E-08  5.926254E-11
   9.425001E+02  2.058675E-08  1.002033E-10
   9.475001E+02  2.048503E-08  1.001244E-10
   9.525001E+02  2.034174E-08  1.000081E-10
   9.575001E+02  2.018883E-08  5.844364E-11
   9.625001E+02  2.005864E-08  5.827203E-11
   9.675001E+02  1.993541E-08  5.808141E-11
   9.725001E+02  1.981694E-08  5.793633E-11
   9.775001E+02  1.969003E-08  5.774084E-11
   9.825001E+02  1.956959E-08  5.756478E-11
   9.875001E+02  1.951327E-08  1.281415E-10
   9.925001E+02  1.935996E-08  5.723550E-11
   9.975001E+02  1.921941E-08  5.702327E-11
   1.002500E+03  1.913652E-08  9.898565E-11
   1.007500E+03  1.904487E-08  9.889125E-11
   1.012500E+03  1.890050E-08  9.882392E-11
   1.017500E+03  1.876747E-08  5.636639E-11
   1.022500E+03  1.868068E-08  5.623605E-11
   1.027500E+03  1.853147E-08  5.602155E-11
   1.032500E+03  1.844822E-08  5.587770E-11
   1.037500E+03  1.834457E-08  5.570581E-11
   1.042500E+03  1.823927E-08  5.557293E-11
   1.047500E+03  1.810079E-08  5.535424E-11
   1.052500E+03  1.799551E-08  5.519596E-11
   1.057500E+03  1.791248E-08  5.506775E-11
   1.062500E+03  1.782646E-08  5.493279E-11
   1.067500E+03  1.773943E-08  5.480305E-11
   1.072500E+03  1.759127E-08  5.457201E-11
   1.077500E+03  1.753207E-08  5.446777E-11
   1.082500E+03  1.740121E-08  5.426669E-11
   1.087500E+03  1.730072E-08  5.411027E-11
   1.092500E+03  1.720001E-08  5.397365E-11
   1.097500E+03  1.711001E-08  5.381220E-11
   1.102500E+03  1.703889E-08  5.372190E-11
   1.107500E+03  1.692728E-08  5.352893E-11
   1.112500E+03  1.682185E-08  5.336360E-11
   1.117500E+03  1.675743E-08  5.326980E-11
   1.122500E+03  1.664706E-08  5.309282E-11
   1.127500E+03  1.655633E-08  5.295304E-11
   1.132500E+03  1.644957E-08  5.275676E-11
   1.137500E+03  1.638119E-08  5.268055E-11
   1.142500E+03  1.628155E-08  5.251069E-11
   1.147500E+03  1.620694E-08  5.237428E-11
   1.152500E+03  1.610870E-08  5.224004E-11
   1.157500E+03  1.599991E-08  5.204000E-11
   1.162500E+03  1.594123E-08  5.195882E-11
   1.167500E+03  1.582575E-08  5.177052E-11
   1.172500E+03  1.577401E-08  5.168862E-11
   1.177500E+03  1.568480E-08  5.154664E-11
   1.182500E+03  1.560508E-08  5.141509E-11
   1.187500E+03  1.549682E-08  5.122592E-11
   1.192500E+03  1.541917E-08  5.110561E-11
   1.197500E+03  1.536015E-08  5.101282E-11
   1.202500E+03  1.528185E-08  5.089020E-11
   1.207500E+03  1.519466E-08  5.073919E-11
   1.212500E+03  1.512000E-08  5.060645E-11
   1.217500E+03  1.504717E-08  5.050098E-11
   1.222500E+03  1.498730E-08  5.037986E-11
   1.227500E+03  1.491187E-08  5.025654E-11
   1.232500E+03  1.479024E-08  5.004411E-11
   1.237500E+03  1.475458E-08  4.999700E-11
   1.242500E+03  1.468317E-08  4.988183E-11
   1.247500E+03  1.458298E-08  4.969905E-11
   1.252500E+03  1.450518E-08  4.956774E-11
   1.257500E+03  1.441733E-08  4.943352E-11
   1.262500E+03  1.436909E-08  4.933653E-11
   1.267500E+03  1.429922E-08  4.922589E-11
   1.272500E+03  1.423644E-08  4.911127E-11
   1.277500E+03  1.415492E-08  4.895496E-11
   1.282500E+03  1.407488E-08  4.884317E-11
   1.287500E+03  1.401407E-08  4.873079E-11
   1.292500E+03  1.392020E-08  4.856038E-11
   1.297500E+03  1.386809E-08  4.848543E-11
   1.302500E+03  1.380610E-08  4.836872E-11
   1.307500E+03  1.374244E-08  4.826691E-11
   1.312500E+03  1.366950E-08  4.813423E-11
   1.317500E+03  1.360220E-08  4.800236E-11
   1.322500E+03  1.352796E-08  4.786866E-11
   1.327500E+03  1.348648E-08  4.779830E-11
   1.332500E+03  1.338857E-08  4.763265E-11
   1.337500E+03  1.334126E-08  4.754414E-11
   1.342500E+03  1.328367E-08  4.744530E-11
   1.347500E+03  1.321754E-08  4.732471E-11
   1.352500E+03  1.312996E-08  4.717078E-11
   1.357500E+03  1.305568E-08  4.703531E-11
   1.362500E+03  1.301682E-08  4.697772E-11
   1.367500E+03  1.295719E-08  4.687447E-11
   1.372500E+03  1.290235E-08  4.676379E-11
   1.377500E+03  1.285462E-08  4.668585E-11
   1.382500E+03  1.278346E-08  4.656581E-11
   1.387500E+03  1.272822E-08  4.645272E-11
   1.392500E+03  1.264719E-08  4.632831E-11
   1.397500E+03  1.257518E-08  4.618374E-11
   1.402500E+03  1.255685E-08  4.613956E-11
   1.407500E+03  1.247894E-08  4.599954E-11
   1.412500E+03  1.239716E-08  4.584543E-11
   1.417500E+03  1.235835E-08  4.576893E-11
   1.422500E+03  1.230758E-08  4.568584E-11
   1.427500E+03  1.226084E-08  4.559624E-11
   1.432500E+03  1.220598E-08  4.551641E-11
   1.437500E+03  1.211502E-08  4.533362E-11
   1.442500E+03  1.208487E-08  4.528550E-11
   1.447500E+03  1.203213E-08  4.517340E-11
   1.452500E+03  1.199841E-08  4.510605E-11
   1.457500E+03  1.191537E-08  4.495637E-11
   1.462500E+03  1.186891E-08  4.485356E-11
   1.467500E+03  1.182127E-08  4.478776E-11
   1.472500E+03  1.173997E-08  4.463171E-11
   1.477500E+03  1.168545E-08  4.452123E-11
   1.482500E+03  1.164652E-08  4.444684E-11
   1.487500E+03  1.160297E-08  4.437257E-11
   1.492500E+03  1.153713E-08  4.423454E-11
   1.497500E+03  1.147289E-08  4.412671E-11
   1.502500E+03  1.141592E-08  4.401141E-11
   1.507500E+03  1.136994E-08  4.393033E-11
   1.512500E+03  1.136714E-08  4.392031E-11
   1.517500E+03  1.126185E-08  4.371775E-11
   1.522500E+03  1.122752E-08  4.365111E-11
   1.527500E+03  1.119228E-08  4.357729E-11
   1.532500E+03  1.110308E-08  4.339260E-11
   1.537500E+03  1.110332E-08  4.341148E-11
   1.542500E+03  1.107822E-08  4.336317E-11
   1.547500E+03  1.097707E-08  4.318267E-11
   1.552500E+03  1.093987E-08  4.309498E-11
   1.557500E+03  1.092550E-08  4.307149E-11
   1.562500E+03  1.085051E-08  4.290931E-11
   1.567500E+03  1.078166E-08  4.278284E-11
   1.572500E+03  1.075263E-08  4.271931E-11
   1.577500E+03  1.073631E-08  4.269028E-11
   1.582500E+03  1.065738E-08  4.253213E-11
   1.587500E+03  1.060090E-08  4.242428E-11
   1.592500E+03  1.056322E-08  4.234891E-11
   1.597500E+03  1.052913E-08  4.229890E-11
   1.602500E+03  1.046933E-08  4.216572E-11
   1.607500E+03  1.043368E-08  4.210088E-11
   1.612500E+03  1.040406E-08  4.203831E-11
   1.617500E+03  1.037130E-08  4.196437E-11
   1.622500E+03  1.028482E-08  4.180366E-11
   1.627500E+03  1.027020E-08  4.175731E-11
   1.632500E+03  1.021349E-08  4.164244E-11
   1.637500E+03  1.016800E-08  4.155146E-11
   1.642500E+03  1.013536E-08  4.148480E-11
   1.647500E+03  1.008219E-08  4.139129E-11
   1.652500E+03  1.006249E-08  4.133339E-11
   1.657500E+03  1.002054E-08  4.125092E-11
   1.662500E+03  9.979983E-09  4.118420E-11
   1.667500E+03  9.919440E-09  4.104765E-11
   1.672500E+03  9.874589E-09  4.094940E-11
   1.677500E+03  9.822044E-09  4.084776E-11
   1.682500E+03  9.814554E-09  4.084158E-11
   1.687500E+03  9.751038E-09  4.071338E-11
   1.692500E+03  9.691239E-09  4.057999E-11
   1.697500E+03  9.663827E-09  4.051724E-11
   1.702500E+03  9.650953E-09  4.049780E-11
   1.707500E+03  9.595210E-09  4.038886E-11
   1.712500E+03  9.577837E-09  4.035624E-11
   1.717500E+03  9.510390E-09  4.019687E-11
   1.722500E+03  9.483191E-09  4.014868E-11
   1.727500E+03  9.425312E-09  4.003640E-11
   1.732500E+03  9.429854E-09  4.004574E-11
   1.737500E+03  9.368295E-09  3.990226E-11
   1.742500E+03  9.328964E-09  3.983448E-11
   1.747500E+03  9.288347E-09  3.974171E-11
   1.752500E+03  9.232891E-09  3.962733E-11
   1.757500E+03  9.202718E-09  3.956595E-11
   1.762500E+03  9.176771E-09  3.951488E-11
   1.767500E+03  9.133427E-09  3.941226E-11
   1.772500E+03  9.115413E-09  3.938111E-11
   1.777500E+03  9.061933E-09  3.926064E-11
   1.782500E+03  9.038761E-09  3.921002E-11
   1.787500E+03  8.964311E-09  3.904814E-11
   1.792500E+03  8.951920E-09  3.903204E-11
   1.797500E+03  8.903027E-09  3.890800E-11
   1.802500E+03  8.867955E-09  3.883964E-11
   1.807500E+03  8.848937E-09  3.879735E-11
   1.812500E+03  8.807063E-09  3.870555E-11
   1.817500E+03  8.746021E-09  3.857495E-11
   1.822500E+03  8.751969E-09  3.859345E-11
   1.827500E+03  8.703752E-09  3.847646E-11
   1.832500E+03  8.685471E-09  3.843332E-11
   1.837500E+03  8.647270E-09  3.836266E-11
   1.842500E+03  8.574530E-09  3.818483E-11
   1.847500E+03  8.539105E-09  3.811946E-11
   1.852500E+03  8.536896E-09  3.812126E-11
   1.857500E+03  8.492071E-09  3.802939E-11
   1.862500E+03  8.501023E-09  3.803184E-11
   1.867500E+03  8.443754E-09  3.791611E-11
   1.872500E+03  8.402618E-09  3.781698E-11
   1.877500E+03  8.392929E-09  3.779948E-11
   1.882500E+03  8.332848E-09  3.766646E-11
   1.887500E+03  8.295807E-09  3.757872E-11
   1.892500E+03  8.263730E-09  3.750916E-11
   1.897500E+03  8.228146E-09  3.743400E-11
   1.902500E+03  8.214281E-09  3.739505E-11
   1.907500E+03  8.181688E-09  3.733662E-11
   1.912500E+03  8.160130E-09  3.728925E-11
   1.917500E+03  8.099345E-09  3.714787E-11
   1.922500E+03  8.064938E-09  3.705733E-11
   1.927500E+03  8.052849E-09  3.703840E-11
   1.932500E+03  8.000885E-09  3.691644E-11
   1.937500E+03  7.996130E-09  3.690915E-11
   1.942500E+03  7.932820E-09  3.675980E-11
   1.947500E+03  7.910784E-09  3.669950E-11
   1.952500E+03  7.877984E-09  3.664029E-11
   1.957500E+03  7.860759E-09  3.659758E-11
   1.962500E+03  7.855398E-09  3.658407E-11
   1.967500E+03  7.794715E-09  3.643419E-11
   1.972500E+03  7.768609E-09  3.637780E-11
   1.977500E+03  7.732605E-09  3.629564E-11
   1.982500E+03  7.718094E-09  3.626269E-11
   1.987500E+03  7.688069E-09  3.620121E-11
   1.992500E+03  7.649316E-09  3.612026E-11
   1.997500E+03  7.618374E-09  3.602841E-11
   2.002500E+03  7.585559E-09  3.595534E-11
   2.007500E+03  7.573625E-09  3.593412E-11
   2.012500E+03  7.538091E-09  3.585299E-11
   2.017500E+03  7.490954E-09  3.572530E-11
   2.022500E+03  7.498603E-09  3.575868E-11
   2.027500E+03  7.434876E-09  3.560331E-11
   2.032500E+03  7.420285E-09  3.556799E-11
   2.037500E+03  7.395874E-09  3.552315E-11
   2.042500E+03  7.355413E-09  3.541532E-11
   2.047500E+03  7.332226E-09  3.535903E-11
   2.052500E+03  7.318092E-09  3.531507E-11
   2.057500E+03  7.298403E-09  3.526901E-11
   2.062500E+03  7.261721E-09  3.519031E-11
   2.067500E+03  7.235317E-09  3.512877E-11
   2.072500E+03  7.196882E-09  3.503349E-11
   2.077500E+03  7.174920E-09  3.498362E-11
   2.082500E+03  7.170067E-09  3.497399E-11
   2.087500E+03  7.153884E-09  3.493517E-11
   2.092500E+03  7.099314E-09  3.480572E-11
   2.097500E+03  7.084500E-09  3.476786E-11
   2.102500E+03  7.049290E-09  3.468310E-11
   2.107500E+03  7.030286E-09  3.462807E-11
   2.112500E+03  6.993490E-09  3.453994E-11
   2.117500E+03  6.955780E-09  3.444810E-11
   2.122500E+03  6.949685E-09  3.442988E-11
   2.127500E+03  6.916280E-09  3.435606E-11
   2.132500E+03  6.891728E-09  3.428821E-11
   2.137500E+03  6.867641E-09  3.423986E-11
   2.142500E+03  6.823073E-09  3.413641E-11
   2.147500E+03  6.826733E-09  3.413544E-11
   2.152500E+03  6.794348E-09  3.406085E-11
   2.157500E+03  6.784096E-09  3.403549E-11
   2.162500E+03  6.732571E-09  3.391009E-11
   2.167500E+03  6.715555E-09  3.385514E-11
   2.172500E+03  6.690544E-09  3.379640E-11
   2.177500E+03  6.655014E-09  3.370687E-11
   2.182500E+03  6.669750E-09  3.375517E-11
   2.187500E+03  6.620487E-09  3.362617E-11
   2.192500E+03  6.598192E-09  3.358002E-11
   2.197500E+03  6.577642E-09  3.351197E-11
   2.202500E+03  6.531286E-09  3.341065E-11
   2.207500E+03  6.539853E-09  3.342211E-11
   2.212500E+03  6.493631E-09  3.330529E-11
   2.217500E+03  6.477725E-09  3.327159E-11
   2.222500E+03  6.435897E-09  3.316266E-11
   2.227500E+03  6.448996E-09  3.319688E-11
   2.232500E+03  6.405147E-09  3.307522E-11
   2.237500E+03  6.373479E-09  3.300890E-11
   2.242500E+03  6.369850E-09  3.298906E-11
   2.247500E+03  6.337493E-09  3.290146E-11
   2.252500E+03  6.297166E-09  3.280169E-11
   2.257500E+03  6.278239E-09  3.275864E-11
   2.262500E+03  6.259909E-09  3.270251E-11
   2.267500E+03  6.239607E-09  3.266275E-11
   2.272500E+03  6.228230E-09  3.263208E-11
   2.277500E+03  6.200941E-09  3.255895E-11
   2.282500E+03  6.162639E-09  3.246905E-11
   2.287500E+03  6.153708E-09  3.242212E-11
   2.292500E+03  6.113891E-09  3.234001E-11
   2.297500E+03  6.102569E-09  3.230415E-11
   2.302500E+03  6.070328E-09  3.223039E-11
   2.307500E+03  6.084964E-09  3.225628E-11
   2.312500E+03  6.053315E-09  3.216866E-11
   2.317500E+03  6.021168E-09  3.210612E-11
   2.322500E+03  5.986240E-09  3.199933E-11
   2.327500E+03  5.982817E-09  3.198350E-11
   2.332500E+03  5.960990E-09  3.192938E-11
   2.337500E+03  5.941853E-09  3.188505E-11
   2.342500E+03  5.909473E-09  3.180595E-11
   2.347500E+03  5.886143E-09  3.173413E-11
   2.352500E+03  5.871737E-09  3.170104E-11
   2.357500E+03  5.848343E-09  3.163783E-11
   2.362500E+03  5.824845E-09  3.157171E-11
   2.367500E+03  5.807694E-09  3.152631E-11
   2.372500E+03  5.805873E-09  3.153755E-11
   2.377500E+03  5.752859E-09  3.137860E-11
   2.382500E+03  5.735271E-09  3.132851E-11
   2.387500E+03  5.736288E-09  3.133077E-11
   2.392500E+03  5.728418E-09  3.132510E-11
   2.397500E+03  5.696811E-09  3.122148E-11
   2.402500E+03  5.658631E-09  3.113157E-11
   2.407500E+03  5.641816E-09  3.108809E-11
   2.412500E+03  5.640655E-09  3.108118E-11
   2.417500E+03  5.603791E-09  3.097526E-11
   2.422500E+03  5.583325E-09  3.091395E-11
   2.427500E+03  5.567470E-09  3.087323E-11
   2.432500E+03  5.544856E-09  3.081426E-11
   2.437500E+03  5.539736E-09  3.080735E-11
   2.442500E+03  5.511579E-09  3.073423E-11
   2.447500E+03  5.496363E-09  3.067886E-11
   2.452500E+03  5.461331E-09  3.059528E-11
   2.457500E+03  5.450028E-09  3.054808E-11
   2.462500E+03  5.427097E-09  3.049656E-11
   2.467500E+03  5.401446E-09  3.042283E-11
   2.472500E+03  5.395954E-09  3.040831E-11
   2.477500E+03  5.377998E-09  3.035858E-11
   2.482500E+03  5.351408E-09  3.027419E-11
   2.487500E+03  5.338365E-09  3.024068E-11
   2.492500E+03  5.315876E-09  3.017993E-11
   2.497500E+03  5.299204E-09  3.014014E-11
   2.502500E+03  5.265478E-09  3.003309E-11
   2.507500E+03  5.266511E-09  3.005389E-11
   2.512500E+03  5.217148E-09  2.991596E-11
   2.517500E+03  5.224194E-09  2.993112E-11
   2.522500E+03  5.200648E-09  2.986381E-11
   2.527500E+03  5.196658E-09  2.985574E-11
   2.532500E+03  5.158673E-09  2.973816E-11
   2.537500E+03  5.157436E-09  2.974304E-11
   2.542500E+03  5.138698E-09  2.968944E-11
   2.547500E+03  5.105109E-09  2.959353E-11
   2.552500E+03  5.091291E-09  2.955437E-11
   2.557500E+03  5.069822E-09  2.948510E-11
   2.562500E+03  5.063307E-09  2.947001E-11
   2.567500E+03  5.042374E-09  2.941743E-11
   2.572500E+03  5.029261E-09  2.938160E-11
   2.577500E+03  5.000898E-09  2.929438E-11
   2.582500E+03  4.988165E-09  2.926635E-11
   2.587500E+03  4.971880E-09  2.922080E-11
   2.592500E+03  4.953936E-09  2.915999E-11
   2.597500E+03  4.917687E-09  2.905602E-11
   2.602500E+03  4.918867E-09  2.905971E-11
   2.607500E+03  4.907900E-09  2.903353E-11
   2.612500E+03  4.870713E-09  2.891536E-11
   2.617500E+03  4.858921E-09  2.888571E-11
   2.622500E+03  4.851594E-09  2.886715E-11
   2.627500E+03  4.825526E-09  2.877876E-11
   2.632500E+03  4.809739E-09  2.873754E-11
   2.637500E+03  4.785093E-09  2.866217E-11
   2.642500E+03  4.778638E-09  2.864255E-11
   2.647500E+03  4.764593E-09  2.861233E-11
   2.652500E+03  4.743344E-09  2.854470E-11
   2.657500E+03  4.731747E-09  2.850687E-11
   2.662500E+03  4.714189E-09  2.846095E-11
   2.667500E+03  4.698399E-09  2.841857E-11
   2.672500E+03  4.674934E-09  2.833179E-11
   2.677500E+03  4.660722E-09  2.829982E-11
   2.682500E+03  4.639004E-09  2.823005E-11
   2.687500E+03  4.641038E-09  2.824014E-11
   2.692500E+03  4.602833E-09  2.813450E-11
   2.697500E+03  4.610632E-09  2.814740E-11
   2.702500E+03  4.577788E-09  2.805852E-11
   2.707500E+03  4.557923E-09  2.798804E-11
   2.712500E+03  4.554754E-09  2.798481E-11
   2.717500E+03  4.531086E-09  2.790412E-11
   2.722500E+03  4.505276E-09  2.783739E-11
   2.727500E+03  4.509851E-09  2.784124E-11
   2.732500E+03  4.473560E-09  2.774001E-11
   2.737500E+03  4.473186E-09  2.772716E-11
   2.742500E+03  4.438015E-09  2.762888E-11
   2.747500E+03  4.431509E-09  2.760759E-11
   2.752500E+03  4.420300E-09  2.756933E-11
   2.757500E+03  4.412661E-09  2.755520E-11
   2.762500E+03  4.388841E-09  2.748039E-11
   2.767500E+03  4.378520E-09  2.744407E-11
   2.772500E+03  4.367180E-09  2.741045E-11
   2.777500E+03  4.336397E-09  2.730945E-11
   2.782500E+03  4.335052E-09  2.731431E-11
   2.787500E+03  4.309323E-09  2.723232E-11
   2.792500E+03  4.301617E-09  2.720856E-11
   2.797500E+03  4.282907E-09  2.714531E-11
   2.802500E+03  4.260787E-09  2.708095E-11
   2.807500E+03  4.255864E-09  2.705516E-11
   2.812500E+03  4.247793E-09  2.703791E-11
   2.817500E+03  4.234165E-09  2.699703E-11
   2.822500E+03  4.201879E-09  2.689851E-11
   2.827500E+03  4.190462E-09  2.685810E-11
   2.832500E+03  4.186740E-09  2.684990E-11
   2.837500E+03  4.166111E-09  2.679479E-11
   2.842500E+03  4.136347E-09  2.669364E-11
   2.847500E+03  4.138545E-09  2.669558E-11
   2.852500E+03  4.130190E-09  2.667624E-11
   2.857500E+03  4.102823E-09  2.658919E-11
   2.862500E+03  4.110114E-09  2.661105E-11
   2.867500E+03  4.082406E-09  2.652520E-11
   2.872500E+03  4.062768E-09  2.646099E-11
   2.877500E+03  4.052180E-09  2.641958E-11
   2.882500E+03  4.041369E-09  2.639102E-11
   2.887500E+03  4.022052E-09  2.632809E-11
   2.892500E+03  4.003675E-09  2.627861E-11
   2.897500E+03  4.015643E-09  2.630405E-11
   2.902500E+03  3.972407E-09  2.616469E-11
   2.907500E+03  3.975884E-09  2.617686E-11
   2.912500E+03  3.952965E-09  2.610309E-11
   2.917500E+03  3.933838E-09  2.603870E-11
   2.922500E+03  3.924148E-09  2.601103E-11
   2.927500E+03  3.899477E-09  2.593179E-11
   2.932500E+03  3.891452E-09  2.589530E-11
   2.937500E+03  3.891949E-09  2.590280E-11
   2.942500E+03  3.869766E-09  2.582702E-11
   2.947500E+03  3.866062E-09  2.582218E-11
   2.952500E+03  3.851005E-09  2.577518E-11
   2.957500E+03  3.820054E-09  2.566337E-11
   2.962500E+03  3.813628E-09  2.565077E-11
   2.967500E+03  3.812190E-09  2.564109E-11
   2.972500E+03  3.775893E-09  2.552371E-11
   2.977500E+03  3.761103E-09  2.546713E-11
   2.982500E+03  3.765772E-09  2.548650E-11
   2.987500E+03  3.755750E-09  2.545785E-11
   2.992500E+03  3.735318E-09  2.539252E-11
   2.997500E+03  3.742873E-09  2.542325E-11
   3.002500E+03  3.702010E-09  2.528109E-11
   3.007500E+03  3.690832E-09  2.523828E-11
   3.012500E+03  3.677093E-09  2.519559E-11
   3.017500E+03  3.657125E-09  2.512637E-11
   3.022500E+03  3.648935E-09  2.509631E-11
   3.027500E+03  3.646851E-09  2.509544E-11
   3.032500E+03  3.630213E-09  2.503702E-11
   3.037500E+03  3.610897E-09  2.496636E-11
   3.042500E+03  3.593922E-09  2.491210E-11
   3.047500E+03  3.596675E-09  2.492272E-11
   3.052500E+03  3.566802E-09  2.481807E-11
   3.057500E+03  3.579426E-09  2.486202E-11
   3.062500E+03  3.545781E-09  2.474407E-11
   3.067500E+03  3.550432E-09  2.476646E-11
   3.072500E+03  3.540106E-09  2.472390E-11
   3.077500E+03  3.504823E-09  2.460965E-11
   3.082500E+03  3.495272E-09  2.458359E-11
   3.087500E+03  3.496518E-09  2.457845E-11
   3.092500E+03  3.458930E-09  2.444956E-11
   3.097500E+03  3.456445E-09  2.443906E-11
   3.102500E+03  3.451891E-09  2.442229E-11
   3.107500E+03  3.439488E-09  2.438103E-11
   3.112500E+03  3.410727E-09  2.427880E-11
   3.117500E+03  3.411753E-09  2.428621E-11
   3.122500E+03  3.400756E-09  2.425465E-11
   3.127500E+03  3.397231E-09  2.423326E-11
   3.132500E+03  3.366462E-09  2.413115E-11
   3.137500E+03  3.358145E-09  2.409307E-11
   3.142500E+03  3.350805E-09  2.406448E-11
   3.147500E+03  3.328845E-09  2.399565E-11
   3.152500E+03  3.318564E-09  2.395926E-11
   3.157500E+03  3.311446E-09  2.393048E-11
   3.162500E+03  3.301857E-09  2.389996E-11
   3.167500E+03  3.307351E-09  2.392100E-11
   3.172500E+03  3.277040E-09  2.380862E-11
   3.177500E+03  3.259633E-09  2.375072E-11
   3.182500E+03  3.260117E-09  2.373966E-11
   3.187500E+03  3.224300E-09  2.361707E-11
   3.192500E+03  3.237661E-09  2.366953E-11
   3.197500E+03  3.235772E-09  2.366248E-11
   3.202500E+03  3.207712E-09  2.356096E-11
   3.207500E+03  3.200017E-09  2.354052E-11
   3.212500E+03  3.178969E-09  2.346430E-11
   3.217500E+03  3.167411E-09  2.341637E-11
   3.222500E+03  3.153319E-09  2.336668E-11
   3.227500E+03  3.148735E-09  2.334977E-11
   3.232500E+03  3.150476E-09  2.334861E-11
   3.237500E+03  3.130910E-09  2.328613E-11
   3.242500E+03  3.121431E-09  2.324224E-11
   3.247500E+03  3.093068E-09  2.315032E-11
   3.252500E+03  3.096166E-09  2.316045E-11
   3.257500E+03  3.084179E-09  2.311659E-11
   3.262500E+03  3.087898E-09  2.312891E-11
   3.267500E+03  3.063907E-09  2.304239E-11
   3.272500E+03  3.047823E-09  2.297840E-11
   3.277500E+03  3.041183E-09  2.296021E-11
   3.282500E+03  3.021523E-09  2.288657E-11
   3.287500E+03  3.013760E-09  2.286025E-11
   3.292500E+03  2.985938E-09  2.274961E-11
   3.297500E+03  2.988982E-09  2.276114E-11
   3.302500E+03  2.978137E-09  2.272023E-11
   3.307500E+03  2.953658E-09  2.262671E-11
   3.312500E+03  2.961928E-09  2.266059E-11
   3.317500E+03  2.936436E-09  2.256464E-11
   3.322500E+03  2.930440E-09  2.253851E-11
   3.327500E+03  2.919490E-09  2.249983E-11
   3.332500E+03  2.910804E-09  2.247450E-11
   3.337500E+03  2.890249E-09  2.239154E-11
   3.342500E+03  2.895325E-09  2.240907E-11
   3.347500E+03  2.876651E-09  2.233336E-11
   3.352500E+03  2.875031E-09  2.233069E-11
   3.357500E+03  2.842150E-09  2.219815E-11
   3.362500E+03  2.837504E-09  2.218898E-11
   3.367500E+03  2.820221E-09  2.212132E-11
   3.372500E+03  2.819773E-09  2.211859E-11
   3.377500E+03  2.823753E-09  2.213444E-11
   3.382500E+03  2.806394E-09  2.206356E-11
   3.387500E+03  2.791841E-09  2.200839E-11
   3.392500E+03  2.784432E-09  2.199075E-11
   3.397500E+03  2.777596E-09  2.195986E-11
   3.402500E+03  2.758580E-09  2.188667E-11
   3.407500E+03  2.745670E-09  2.182966E-11
   3.412500E+03  2.734159E-09  2.178568E-11
   3.417500E+03  2.719204E-09  2.172841E-11
   3.422500E+03  2.717251E-09  2.172376E-11
   3.427500E+03  2.709633E-09  2.169299E-11
   3.432500E+03  2.697776E-09  2.163635E-11
   3.437500E+03  2.679072E-09  2.157493E-11
   3.442500E+03  2.673146E-09  2.154686E-11
   3.447500E+03  2.662856E-09  2.151032E-11
   3.452500E+03  2.663399E-09  2.151419E-11
   3.457500E+03  2.640376E-09  2.142066E-11
   3.462500E+03  2.638883E-09  2.140851E-11
   3.467500E+03  2.626030E-09  2.136471E-11
   3.472500E+03  2.625630E-09  2.136025E-11
   3.477500E+03  2.611101E-09  2.129966E-11
   3.482500E+03  2.585319E-09  2.119655E-11
   3.487500E+03  2.573918E-09  2.115062E-11
   3.492500E+03  2.554269E-09  2.107338E-11
   3.497500E+03  2.558424E-09  2.108190E-11
   3.502500E+03  2.552222E-09  2.106148E-11
   3.507500E+03  2.535560E-09  2.099278E-11
   3.512500E+03  2.528450E-09  2.096809E-11
   3.517500E+03  2.516965E-09  2.092006E-11
   3.522500E+03  2.501194E-09  2.085786E-11
   3.527500E+03  2.493951E-09  2.082226E-11
   3.532500E+03  2.492571E-09  2.081941E-11
   3.537500E+03  2.476890E-09  2.075498E-11
   3.542500E+03  2.468523E-09  2.072450E-11
   3.547500E+03  2.456956E-09  2.067538E-11
   3.552500E+03  2.441208E-09  2.060648E-11
   3.557500E+03  2.434790E-09  2.058213E-11
   3.562500E+03  2.423765E-09  2.053451E-11
   3.567500E+03  2.418380E-09  2.051779E-11
   3.572500E+03  2.400771E-09  2.043528E-11
   3.577500E+03  2.407527E-09  2.047159E-11
   3.582500E+03  2.390160E-09  2.038787E-11
   3.587500E+03  2.382697E-09  2.035846E-11
   3.592500E+03  2.362473E-09  2.026842E-11
   3.597500E+03  2.362946E-09  2.027510E-11
   3.602500E+03  2.348729E-09  2.021343E-11
   3.607500E+03  2.351379E-09  2.022860E-11
   3.612500E+03  2.333410E-09  2.015553E-11
   3.617500E+03  2.324825E-09  2.011591E-11
   3.622500E+03  2.303063E-09  2.002378E-11
   3.627500E+03  2.285503E-09  1.995268E-11
   3.632500E+03  2.284331E-09  1.994459E-11
   3.637500E+03  2.286236E-09  1.995778E-11
   3.642500E+03  2.272573E-09  1.989575E-11
   3.647500E+03  2.253485E-09  1.981003E-11
   3.652500E+03  2.245864E-09  1.977625E-11
   3.657500E+03  2.247100E-09  1.978825E-11
   3.662500E+03  2.225444E-09  1.968498E-11
   3.667500E+03  2.218966E-09  1.965968E-11
   3.672500E+03  2.206268E-09  1.960234E-11
   3.677500E+03  2.222436E-09  1.967565E-11
   3.682500E+03  2.189040E-09  1.952870E-11
   3.687500E+03  2.178308E-09  1.948148E-11
   3.692500E+03  2.180313E-09  1.949038E-11
   3.697500E+03  2.170045E-09  1.944722E-11
   3.702500E+03  2.162698E-09  1.941768E-11
   3.707500E+03  2.148202E-09  1.934800E-11
   3.712500E+03  2.143961E-09  1.933239E-11
   3.717500E+03  2.116389E-09  1.920577E-11
   3.722500E+03  2.112696E-09  1.919232E-11
   3.727500E+03  2.119141E-09  1.922630E-11
   3.732500E+03  2.103066E-09  1.915296E-11
   3.737500E+03  2.087413E-09  1.907334E-11
   3.742500E+03  2.089059E-09  1.908760E-11
   3.747500E+03  2.062623E-09  1.895876E-11
   3.752500E+03  2.071784E-09  1.901036E-11
   3.757500E+03  2.070492E-09  1.900465E-11
   3.762500E+03  2.045741E-09  1.889119E-11
   3.767500E+03  2.036035E-09  1.885050E-11
   3.772500E+03  2.030742E-09  1.882115E-11
   3.777500E+03  2.019855E-09  1.877728E-11
   3.782500E+03  2.017192E-09  1.876203E-11
   3.787500E+03  2.004201E-09  1.869047E-11
   3.792500E+03  1.993737E-09  1.865126E-11
   3.797500E+03  1.981081E-09  1.859143E-11
   3.802500E+03  1.966700E-09  1.852545E-11
   3.807500E+03  1.963412E-09  1.851418E-11
   3.812500E+03  1.956462E-09  1.848336E-11
   3.817500E+03  1.946725E-09  1.843259E-11
   3.822500E+03  1.929192E-09  1.835318E-11
   3.827500E+03  1.929756E-09  1.835816E-11
   3.832500E+03  1.924541E-09  1.832608E-11
   3.837500E+03  1.905559E-09  1.824253E-11
   3.842500E+03  1.906740E-09  1.823812E-11
   3.847500E+03  1.884969E-09  1.813783E-11
   3.852500E+03  1.872751E-09  1.809029E-11
   3.857500E+03  1.879050E-09  1.810816E-11
   3.862500E+03  1.869604E-09  1.806953E-11
   3.867500E+03  1.862554E-09  1.803661E-11
   3.872500E+03  1.854194E-09  1.799820E-11
   3.877500E+03  1.837164E-09  1.791836E-11
   3.882500E+03  1.826108E-09  1.785716E-11
   3.887500E+03  1.816770E-09  1.781043E-11
   3.892500E+03  1.815362E-09  1.780749E-11
   3.897500E+03  1.799333E-09  1.773472E-11
   3.902500E+03  1.802495E-09  1.774395E-11
   3.907500E+03  1.775954E-09  1.761486E-11
   3.912500E+03  1.781863E-09  1.764987E-11
   3.917500E+03  1.770423E-09  1.759012E-11
   3.922500E+03  1.765212E-09  1.756249E-11
   3.927500E+03  1.750290E-09  1.748942E-11
   3.932500E+03  1.735558E-09  1.741752E-11
   3.937500E+03  1.734552E-09  1.740974E-11
   3.942500E+03  1.730937E-09  1.739585E-11
   3.947500E+03  1.717775E-09  1.732441E-11
   3.952500E+03  1.700822E-09  1.724309E-11
   3.957500E+03  1.695568E-09  1.721780E-11
   3.962500E+03  1.695022E-09  1.721157E-11
   3.967500E+03  1.675838E-09  1.712119E-11
   3.972500E+03  1.676470E-09  1.711994E-11
   3.977500E+03  1.664471E-09  1.706035E-11
   3.982500E+03  1.660035E-09  1.703700E-11
   3.987500E+03  1.649400E-09  1.697905E-11
   3.992500E+03  1.633965E-09  1.690379E-11
   3.997500E+03  1.632509E-09  1.689560E-11
   4.002500E+03  1.623575E-09  1.685552E-11
   4.007500E+03  1.615558E-09  1.680835E-11
   4.012500E+03  1.609841E-09  1.677901E-11
   4.017500E+03  1.590364E-09  1.668135E-11
   4.022500E+03  1.582433E-09  1.663978E-11
   4.027500E+03  1.584777E-09  1.664872E-11
   4.032500E+03  1.574941E-09  1.659806E-11
   4.037500E+03  1.556811E-09  1.650000E-11
   4.042500E+03  1.554174E-09  1.649224E-11
   4.047500E+03  1.550573E-09  1.647425E-11
   4.052500E+03  1.545582E-09  1.644361E-11
   4.057500E+03  1.538603E-09  1.641286E-11
   4.062500E+03  1.522924E-09  1.632604E-11
   4.067500E+03  1.506601E-09  1.623550E-11
   4.072500E+03  1.516642E-09  1.629292E-11
   4.077500E+03  1.494955E-09  1.616521E-11
   4.082500E+03  1.486429E-09  1.612888E-11
   4.087500E+03  1.480231E-09  1.609691E-11
   4.092500E+03  1.470819E-09  1.604618E-11
   4.097500E+03  1.462935E-09  1.600121E-11
   4.102500E+03  1.454017E-09  1.595203E-11
   4.107500E+03  1.444070E-09  1.589661E-11
   4.112500E+03  1.441745E-09  1.588910E-11
   4.117500E+03  1.430971E-09  1.582580E-11
   4.122500E+03  1.412892E-09  1.572562E-11
   4.127500E+03  1.411078E-09  1.571962E-11
   4.132500E+03  1.406059E-09  1.568905E-11
   4.137500E+03  1.403636E-09  1.567622E-11
   4.142500E+03  1.390610E-09  1.560403E-11
   4.147500E+03  1.378869E-09  1.553746E-11
   4.152500E+03  1.374544E-09  1.551080E-11
   4.157500E+03  1.364551E-09  1.545719E-11
   4.162500E+03  1.360574E-09  1.543695E-11
   4.167500E+03  1.349050E-09  1.537075E-11
   4.172500E+03  1.341351E-09  1.532691E-11
   4.177500E+03  1.334201E-09  1.528683E-11
   4.182500E+03  1.327515E-09  1.524496E-11
   4.187500E+03  1.311743E-09  1.515703E-11
   4.192500E+03  1.313834E-09  1.517077E-11
   4.197500E+03  1.296595E-09  1.506972E-11
   4.202500E+03  1.285092E-09  1.500044E-11
   4.207500E+03  1.278872E-09  1.496329E-11
   4.212500E+03  1.273834E-09  1.493548E-11
   4.217500E+03  1.263411E-09  1.487471E-11
   4.222500E+03  1.257953E-09  1.484155E-11
   4.227500E+03  1.253301E-09  1.481935E-11
   4.232500E+03  1.242181E-09  1.475466E-11
   4.237500E+03  1.233311E-09  1.469605E-11
   4.242500E+03  1.226360E-09  1.465359E-11
   4.247500E+03  1.214703E-09  1.458655E-11
   4.252500E+03  1.214911E-09  1.458762E-11
   4.257500E+03  1.201812E-09  1.450938E-11
   4.262500E+03  1.192768E-09  1.445787E-11
   4.267500E+03  1.195153E-09  1.447202E-11
   4.272500E+03  1.172781E-09  1.433418E-11
   4.277500E+03  1.178598E-09  1.437287E-11
   4.282500E+03  1.159480E-09  1.425446E-11
   4.287500E+03  1.154489E-09  1.422102E-11
   4.292500E+03  1.145665E-09  1.416917E-11
   4.297500E+03  1.135849E-09  1.410843E-11
   4.302500E+03  1.139828E-09  1.413156E-11
   4.307500E+03  1.134721E-09  1.409703E-11
   4.312500E+03  1.117334E-09  1.399192E-11
   4.317500E+03  1.109761E-09  1.394240E-11
   4.322500E+03  1.100425E-09  1.388555E-11
   4.327500E+03  1.097843E-09  1.386835E-11
   4.332500E+03  1.083482E-09  1.377711E-11
   4.337500E+03  1.078768E-09  1.374940E-11
   4.342500E+03  1.071274E-09  1.369991E-11
   4.347500E+03  1.068767E-09  1.368173E-11
   4.352500E+03  1.053697E-09  1.358747E-11
   4.357500E+03  1.049837E-09  1.356234E-11
   4.362500E+03  1.040544E-09  1.350381E-11
   4.367500E+03  1.024555E-09  1.339883E-11
   4.372500E+03  1.022487E-09  1.338491E-11
   4.377500E+03  1.013198E-09  1.332537E-11
   4.382500E+03  1.007017E-09  1.328595E-11
   4.387500E+03  1.003276E-09  1.325939E-11
   4.392500E+03  9.881319E-10  1.316024E-11
   4.397500E+03  9.853933E-10  1.314124E-11
   4.402500E+03  9.817384E-10  1.311535E-11
   4.407500E+03  9.720577E-10  1.304916E-11
   4.412500E+03  9.600035E-10  1.297107E-11
   4.417500E+03  9.529243E-10  1.292694E-11
   4.422500E+03  9.455698E-10  1.287250E-11
   4.427500E+03  9.486089E-10  1.289457E-11
   4.432500E+03  9.239124E-10  1.272596E-11
   4.437500E+03  9.253538E-10  1.273253E-11
   4.442500E+03  9.140247E-10  1.265910E-11
   4.447500E+03  9.070609E-10  1.260917E-11
   4.452500E+03  9.005918E-10  1.256305E-11
   4.457500E+03  8.939936E-10  1.251544E-11
   4.462500E+03  8.880629E-10  1.247680E-11
   4.467500E+03  8.740089E-10  1.237587E-11
   4.472500E+03  8.596686E-10  1.227052E-11
   4.477500E+03  8.639504E-10  1.230702E-11
   4.482500E+03  8.557302E-10  1.224868E-11
   4.487500E+03  8.488253E-10  1.219701E-11
   4.492500E+03  8.437786E-10  1.216177E-11
   4.497500E+03  8.395087E-10  1.213051E-11
   4.502500E+03  8.318261E-10  1.207431E-11
   4.507500E+03  8.242597E-10  1.201860E-11
   4.512500E+03  8.050780E-10  1.188128E-11
   4.517500E+03  8.017046E-10  1.185347E-11
   4.522500E+03  7.963327E-10  1.181377E-11
   4.527500E+03  7.882735E-10  1.175467E-11
   4.532500E+03  7.851133E-10  1.173203E-11
   4.537500E+03  7.737775E-10  1.164102E-11
   4.542500E+03  7.664324E-10  1.158560E-11
   4.547500E+03  7.610662E-10  1.155016E-11
   4.552500E+03  7.522541E-10  1.148658E-11
   4.557500E+03  7.412550E-10  1.139871E-11
   4.562500E+03  7.427809E-10  1.140823E-11
   4.567500E+03  7.281486E-10  1.129636E-11
   4.572500E+03  7.230417E-10  1.125831E-11
   4.577500E+03  7.094147E-10  1.115113E-11
   4.582500E+03  7.081560E-10  1.114039E-11
   4.587500E+03  7.009210E-10  1.108420E-11
   4.592500E+03  6.904546E-10  1.100118E-11
   4.597500E+03  6.857114E-10  1.096662E-11
   4.602500E+03  6.769775E-10  1.089189E-11
   4.607500E+03  6.692882E-10  1.082945E-11
   4.612500E+03  6.605411E-10  1.076119E-11
   4.617500E+03  6.543768E-10  1.070886E-11
   4.622500E+03  6.418987E-10  1.060663E-11
   4.627500E+03  6.377978E-10  1.057543E-11
   4.632500E+03  6.320357E-10  1.052450E-11
   4.637500E+03  6.291675E-10  1.050193E-11
   4.642500E+03  6.173256E-10  1.040175E-11
   4.647500E+03  6.038803E-10  1.028916E-11
   4.652500E+03  6.118811E-10  1.035685E-11
   4.657500E+03  5.933038E-10  1.019873E-11
   4.662500E+03  5.895662E-10  1.016398E-11
   4.667500E+03  5.872236E-10  1.014446E-11
   4.672500E+03  5.718710E-10  1.001177E-11
   4.677500E+03  5.667318E-10  9.966146E-12
   4.682500E+03  5.625399E-10  9.927234E-12
   4.687500E+03  5.436639E-10  9.761492E-12
   4.692500E+03  5.444943E-10  9.767486E-12
   4.697500E+03  5.318671E-10  9.655329E-12
   4.702500E+03  5.240999E-10  9.584784E-12
   4.707500E+03  5.173189E-10  9.521293E-12
   4.712500E+03  5.133738E-10  9.487936E-12
   4.717500E+03  5.054898E-10  9.412510E-12
   4.722500E+03  4.992216E-10  9.353771E-12
   4.727500E+03  4.892741E-10  9.261107E-12
   4.732500E+03  4.870549E-10  9.239773E-12
   4.737500E+03  4.695155E-10  9.075366E-12
   4.742500E+03  4.650771E-10  9.028367E-12
   4.747500E+03  4.544484E-10  8.924495E-12
   4.752500E+03  4.516062E-10  8.893549E-12
   4.757500E+03  4.396148E-10  8.777233E-12
   4.762500E+03  4.414446E-10  8.797376E-12
   4.767500E+03  4.290833E-10  8.669748E-12
   4.772500E+03  4.247033E-10  8.629030E-12
   4.777500E+03  4.193890E-10  8.574226E-12
   4.782500E+03  4.102591E-10  8.480628E-12
   4.787500E+03  4.041466E-10  8.416974E-12
   4.792500E+03  3.874053E-10  8.238345E-12
   4.797500E+03  3.839402E-10  8.202735E-12
   4.802500E+03  3.751024E-10  8.107559E-12
   4.807500E+03  3.704693E-10  8.060823E-12
   4.812500E+03  3.589256E-10  7.930739E-12
   4.817500E+03  3.529494E-10  7.864133E-12
   4.822500E+03  3.489198E-10  7.818759E-12
   4.827500E+03  3.374150E-10  7.689002E-12
   4.832500E+03  3.326067E-10  7.635009E-12
   4.837500E+03  3.259297E-10  7.555429E-12
   4.842500E+03  3.198950E-10  7.485246E-12
   4.847500E+03  3.049836E-10  7.311261E-12
   4.852500E+03  3.016548E-10  7.269451E-12
   4.857500E+03  2.950556E-10  7.191503E-12
   4.862500E+03  2.846605E-10  7.062478E-12
   4.867500E+03  2.771269E-10  6.967560E-12
   4.872500E+03  2.697490E-10  6.874798E-12
   4.877500E+03  2.639285E-10  6.799322E-12
   4.882500E+03  2.541173E-10  6.671884E-12
   4.887500E+03  2.455520E-10  6.560160E-12
   4.892500E+03  2.353904E-10  6.423199E-12
   4.897500E+03  2.277790E-10  6.322438E-12
   4.902500E+03  2.195446E-10  6.201930E-12
   4.907500E+03  2.163910E-10  6.160042E-12
   4.912500E+03  2.044580E-10  5.988692E-12
   4.917500E+03  1.927001E-10  5.811986E-12
   4.922500E+03  1.845631E-10  5.686936E-12
   4.927500E+03  1.803193E-10  5.623672E-12
   4.932500E+03  1.689314E-10  5.440416E-12
   4.937500E+03  1.617093E-10  5.321672E-12
   4.942500E+03  1.506911E-10  5.139237E-12
   4.947500E+03  1.442866E-10  5.027610E-12
   4.952500E+03  1.347869E-10  4.860090E-12
   4.957500E+03  1.238272E-10  4.657760E-12
   4.962500E+03  1.109598E-10  4.410042E-12
   4.967500E+03  1.055091E-10  4.300468E-12
   4.972500E+03  1.005062E-10  4.196562E-12
   4.977500E+03  9.053927E-11  3.982328E-12
   4.982500E+03  8.360915E-11  3.826917E-12
   4.987500E+03  7.722410E-11  3.677917E-12
   4.992500E+03  7.303878E-11  3.577835E-12
   4.997500E+03  6.482386E-11  3.369765E-12
