#FORMAT      : EMSA/MAS Spectral Data File
#VERSION     : 1.0
#TITLE       : Bulk Al emitted
#DATE        : 21-AUG-2018
#TIME        : 11:04
#OWNER       : Unknown
#NPOINTS     : 2048
#NCOLUMNS    : 1
#XUNITS      : eV
#YUNITS      : counts
#DATATYPE    : Y
#XPERCHAN    : 10
#OFFSET      : 0
#BEAMKV      : 20
#SIGNALTYPE  : EDS
#ELEVANGLE   : 35
#AZIMANGLE   : 0
#LIVETIME    : 120
#PROBECUR    : 1
#TAUWIND     : 0
#TDEADLYR    : 0.00001
#TACTLYR     : 0.5
#TALWIND     : 0.004
#CHOFFSET    : 0.0
#XLABEL      : Energy (eV)
#YLABEL      : Counts
#EDSDET      : SIUTW
##SPECIMEN   : Bulk Al emitted
##D2STDCMP   : Al,(Al:100.0),2.7
##DET_HASH   : 9f318171-eeab-1727-0d1f-753c6d32458b
##CALIB_HASH : d767e5a2-ae63-6aed-0900-745b880bf6de
#SPECTRUM    : 
0, 
0, 
0, 
0, 
0, 
0, 
6854.53519, 
0, 
0, 
0, 
45.80699, 
42.30399, 
40.76279, 
39.76357, 
44.3461, 
43.58276, 
46.60598, 
48.88756, 
53.12797, 
57.14464, 
62.87136, 
65.90886, 
69.6293, 
75.89166, 
79.11392, 
83.16373, 
88.99079, 
97.13946, 
102.99571, 
109.98055, 
116.58792, 
124.39764, 
127.68636, 
138.25647, 
142.49671, 
155.10867, 
161.37354, 
170.00556, 
180.84294, 
188.70806, 
198.54598, 
207.07198, 
220.76743, 
229.19024, 
240.36813, 
249.62452, 
264.27123, 
275.43871, 
287.79551, 
293.79751, 
304.38162, 
318.84577, 
329.89055, 
342.96204, 
358.12466, 
368.8225, 
375.4195, 
394.52499, 
405.34498, 
415.79976, 
434.07173, 
438.18526, 
451.57904, 
467.28903, 
472.9284, 
492.57038, 
503.40228, 
509.43652, 
524.95686, 
533.29194, 
548.40085, 
553.50926, 
568.60996, 
571.45671, 
587.79014, 
598.17788, 
599.57282, 
611.78086, 
618.79241, 
623.24751, 
640.08399, 
641.53768, 
648.40183, 
653.15665, 
668.08768, 
667.81714, 
675.84567, 
682.11998, 
680.86333, 
691.54436, 
696.50794, 
695.50833, 
709.76941, 
708.67029, 
708.17736, 
718.09885, 
721.84142, 
722.2189, 
724.2502, 
733.17512, 
729.75444, 
731.80998, 
731.9191, 
734.81427, 
747.46254, 
741.01979, 
737.90117, 
743.47789, 
739.35112, 
734.46654, 
741.19875, 
753.01992, 
746.80304, 
748.66639, 
740.35604, 
743.19458, 
743.86315, 
742.64375, 
744.76519, 
742.00121, 
732.72152, 
740.33235, 
748.16156, 
745.8206, 
748.7998, 
732.45897, 
736.09945, 
737.01678, 
737.29709, 
735.44505, 
717.86666, 
729.02753, 
721.90313, 
723.182, 
716.02995, 
720.70379, 
717.51599, 
717.58363, 
709.26632, 
711.686, 
718.45322, 
703.65048, 
705.13579, 
702.73911, 
698.55798, 
698.76818, 
690.52196, 
683.90518, 
1322470.33213, 
690.01384, 
679.43492, 
680.49636, 
676.96601, 
672.19695, 
679.4099, 
8906.34104, 
311.35213, 
153.37767, 
152.72595, 
153.94872, 
154.49342, 
158.31798, 
157.7228, 
158.18325, 
157.73817, 
155.94325, 
161.85557, 
162.71138, 
162.38798, 
159.27176, 
164.31695, 
162.05431, 
164.35513, 
166.29783, 
171.56046, 
169.60422, 
170.22562, 
172.13196, 
173.90627, 
178.2377, 
179.81806, 
175.43572, 
182.82647, 
180.26554, 
182.15153, 
185.41739, 
185.11, 
187.13483, 
187.06374, 
192.75136, 
186.95628, 
193.38018, 
195.45456, 
193.69412, 
198.58215, 
195.57224, 
195.73999, 
200.84216, 
201.62317, 
200.7903, 
202.77892, 
204.08341, 
206.86689, 
209.13204, 
209.04661, 
214.29333, 
212.95547, 
218.40801, 
211.36583, 
217.95671, 
210.67935, 
216.54504, 
215.85057, 
218.55516, 
219.41566, 
221.15741, 
220.31807, 
222.04357, 
220.21482, 
221.19547, 
220.37589, 
222.51525, 
222.49409, 
224.30928, 
230.22622, 
228.07325, 
225.28092, 
223.92692, 
228.73706, 
227.66479, 
232.5491, 
229.50623, 
233.15157, 
231.62239, 
231.8523, 
234.03852, 
228.52794, 
240.51109, 
236.69181, 
235.79651, 
237.73919, 
234.23569, 
234.47793, 
234.3045, 
234.82374, 
233.95762, 
239.21734, 
236.26207, 
232.48168, 
236.83292, 
237.83989, 
236.40084, 
238.0607, 
239.44736, 
237.26527, 
244.13413, 
235.72896, 
235.77528, 
242.42419, 
236.30907, 
238.18167, 
243.65126, 
237.19948, 
239.27483, 
242.24535, 
237.65144, 
243.01366, 
236.45492, 
241.67352, 
235.60532, 
242.5883, 
241.103, 
241.40979, 
243.72949, 
238.57432, 
241.47981, 
244.88311, 
239.27397, 
239.38166, 
239.62428, 
239.00774, 
237.92847, 
239.03046, 
241.1864, 
241.80058, 
234.14769, 
239.30661, 
237.58179, 
238.13324, 
237.607, 
244.75012, 
237.10571, 
236.53233, 
240.83, 
237.83677, 
242.11048, 
238.12375, 
234.34203, 
235.65161, 
241.01357, 
238.71098, 
238.77077, 
240.33226, 
237.42099, 
236.23387, 
232.51543, 
235.22578, 
232.86138, 
234.56349, 
230.24679, 
235.3919, 
231.29941, 
232.56613, 
235.51234, 
237.31238, 
236.04036, 
233.59933, 
230.57584, 
234.10076, 
232.87105, 
231.09799, 
231.98004, 
229.31708, 
235.9438, 
229.09139, 
230.90485, 
232.15825, 
234.95599, 
229.20117, 
229.9358, 
232.98538, 
234.73869, 
226.81923, 
226.69418, 
221.39427, 
227.29565, 
232.8926, 
232.37918, 
221.92612, 
225.73585, 
223.64498, 
225.16296, 
226.74914, 
226.32009, 
224.95777, 
226.70901, 
223.71726, 
228.21944, 
221.9477, 
226.11343, 
227.81531, 
218.88013, 
223.2023, 
221.65453, 
224.1679, 
216.90714, 
221.01271, 
217.83076, 
213.92065, 
225.39753, 
221.83103, 
216.03285, 
221.19912, 
212.98917, 
218.95651, 
215.58035, 
219.28964, 
215.50918, 
210.5268, 
215.31846, 
217.99484, 
217.20937, 
213.17721, 
210.95087, 
209.02279, 
214.41884, 
214.73124, 
211.15705, 
212.69814, 
212.20961, 
207.13541, 
211.07298, 
211.58411, 
208.51945, 
205.46667, 
210.86857, 
207.37465, 
207.38183, 
211.54187, 
205.4024, 
205.77454, 
201.52243, 
208.94344, 
204.30366, 
206.23409, 
209.17914, 
202.16226, 
203.11953, 
202.76387, 
201.50612, 
205.01911, 
201.88804, 
199.35074, 
198.10448, 
202.69268, 
197.9006, 
199.85461, 
201.91798, 
207.211, 
192.41048, 
194.01499, 
197.88606, 
195.85652, 
190.03651, 
198.35864, 
190.43964, 
196.01084, 
191.1217, 
192.66758, 
195.86787, 
197.9187, 
193.87937, 
194.27624, 
190.03757, 
195.31853, 
188.87877, 
183.33689, 
189.36273, 
193.59973, 
189.79015, 
187.36329, 
183.21639, 
189.81815, 
188.08257, 
185.25622, 
185.98415, 
185.99606, 
182.12517, 
183.71226, 
182.75885, 
188.13212, 
180.73328, 
183.39613, 
184.38546, 
180.14654, 
184.10259, 
186.14191, 
181.7381, 
179.52462, 
178.75511, 
181.8163, 
182.06532, 
179.05697, 
184.19746, 
178.42177, 
174.15404, 
177.70233, 
174.48943, 
176.7609, 
172.41976, 
175.44211, 
176.83515, 
173.02028, 
171.28593, 
170.00449, 
173.8442, 
172.29078, 
173.02152, 
172.43068, 
172.00693, 
173.50572, 
170.35555, 
168.91252, 
167.96099, 
171.85691, 
167.15275, 
169.11273, 
173.58139, 
167.3014, 
169.37802, 
166.63964, 
166.93615, 
165.4433, 
168.91559, 
164.61566, 
164.49993, 
168.21086, 
168.06819, 
162.31894, 
162.95221, 
165.77818, 
164.37223, 
158.41645, 
155.3027, 
161.46455, 
162.03258, 
162.51876, 
156.37224, 
161.94769, 
155.99814, 
159.78087, 
158.92994, 
156.80011, 
156.25557, 
158.96371, 
153.63727, 
159.8066, 
157.30335, 
149.42006, 
151.12551, 
156.81577, 
153.50501, 
156.42936, 
154.99009, 
151.18753, 
156.46945, 
150.83343, 
152.15314, 
155.81543, 
152.32995, 
150.70443, 
155.6279, 
152.60102, 
149.11149, 
148.18336, 
146.87134, 
148.23172, 
150.57596, 
150.37888, 
147.0664, 
146.66933, 
143.37672, 
149.196, 
145.6569, 
143.43231, 
145.11789, 
145.29432, 
143.77598, 
145.06544, 
147.34262, 
143.23568, 
141.87089, 
141.04841, 
145.35762, 
146.076, 
140.47936, 
139.58335, 
144.32967, 
139.12474, 
136.50669, 
144.34214, 
137.73081, 
145.64663, 
139.17321, 
142.77977, 
138.12632, 
139.631, 
135.17591, 
140.53646, 
139.13346, 
139.23287, 
134.10719, 
136.97407, 
133.66828, 
140.70834, 
133.97761, 
135.10454, 
128.28584, 
130.39294, 
134.48817, 
131.62119, 
135.74904, 
128.8483, 
131.92961, 
130.28757, 
130.19246, 
129.85076, 
130.4454, 
134.07356, 
130.68341, 
129.5237, 
129.54839, 
129.59579, 
128.66879, 
129.36281, 
128.88936, 
130.03118, 
128.27606, 
127.60472, 
124.85947, 
129.08676, 
124.44378, 
127.58989, 
125.57977, 
126.92216, 
127.98434, 
124.12933, 
127.07537, 
125.97117, 
120.4657, 
126.72205, 
122.54229, 
123.40264, 
122.50291, 
118.63106, 
122.30488, 
129.06292, 
120.13362, 
121.67519, 
118.22031, 
122.0141, 
122.26911, 
119.44086, 
119.97356, 
125.00588, 
119.49358, 
118.94022, 
124.49047, 
115.39252, 
117.58877, 
115.23106, 
115.89366, 
118.66368, 
114.70115, 
112.8793, 
114.87087, 
116.7171, 
111.10565, 
114.97277, 
117.82738, 
115.57762, 
116.79617, 
111.44834, 
115.16369, 
113.92025, 
114.55904, 
113.34579, 
113.61911, 
113.32555, 
114.26838, 
112.65797, 
108.15923, 
114.10476, 
112.2802, 
107.91661, 
114.20832, 
114.9859, 
115.1771, 
111.57125, 
111.22201, 
110.08033, 
108.22179, 
106.77218, 
110.82181, 
109.21474, 
109.31346, 
105.04961, 
110.46969, 
106.92336, 
106.81448, 
110.04227, 
105.55004, 
105.75204, 
106.40442, 
104.6272, 
106.91131, 
104.43622, 
106.96359, 
98.08572, 
104.18871, 
107.10515, 
102.60669, 
101.62733, 
101.52777, 
106.38696, 
104.6892, 
106.83618, 
107.2827, 
101.16114, 
99.73461, 
99.78077, 
103.49131, 
100.27218, 
102.75777, 
98.88836, 
104.73258, 
98.65934, 
99.0019, 
95.19776, 
99.59064, 
98.02725, 
99.39946, 
98.14081, 
97.91019, 
99.26808, 
95.73471, 
95.97553, 
103.20794, 
95.83337, 
99.46166, 
98.38927, 
95.82768, 
93.8321, 
95.33608, 
96.02012, 
94.55507, 
96.68132, 
95.02471, 
94.57629, 
98.37305, 
92.2518, 
95.50685, 
94.67205, 
92.51737, 
93.57701, 
94.27103, 
92.8462, 
93.24496, 
90.34892, 
91.81057, 
97.02429, 
92.23492, 
92.72864, 
91.62224, 
90.74807, 
94.03309, 
88.36286, 
90.27996, 
87.8963, 
89.8594, 
88.54645, 
88.75277, 
90.15131, 
89.53727, 
87.06956, 
91.86429, 
89.70642, 
85.59428, 
88.45383, 
86.36146, 
89.38676, 
86.19172, 
90.5227, 
87.71086, 
89.89128, 
86.85718, 
87.66996, 
86.82044, 
89.27165, 
85.75587, 
85.65547, 
85.77378, 
83.63589, 
82.04593, 
86.09534, 
84.19467, 
86.90337, 
86.13504, 
87.24406, 
83.89234, 
86.08265, 
83.94255, 
80.17865, 
84.65959, 
84.6533, 
83.97434, 
81.96918, 
78.70473, 
84.12107, 
78.07518, 
82.45551, 
81.02497, 
80.85831, 
79.64777, 
80.13492, 
80.13772, 
81.7774, 
83.20089, 
81.17501, 
80.03785, 
82.5902, 
81.80041, 
84.52658, 
79.57985, 
79.30118, 
79.27468, 
81.38378, 
80.40883, 
79.07789, 
76.14649, 
76.00093, 
79.84264, 
81.03099, 
76.29894, 
76.03395, 
77.78471, 
76.69101, 
75.4455, 
76.64104, 
76.08597, 
73.23332, 
72.82571, 
76.70896, 
72.52527, 
75.89611, 
74.47583, 
75.21791, 
74.02959, 
75.94696, 
74.47709, 
74.18613, 
72.54435, 
77.62804, 
71.77205, 
71.63911, 
72.60729, 
74.62163, 
74.73545, 
73.61195, 
75.7693, 
74.1022, 
70.39478, 
72.91663, 
72.5613, 
70.05563, 
73.12973, 
71.72837, 
70.41268, 
73.11822, 
69.59382, 
72.81526, 
71.16687, 
71.68254, 
73.41321, 
71.32601, 
67.66899, 
67.94793, 
72.0769, 
69.72334, 
68.83092, 
70.54787, 
68.20437, 
71.44343, 
69.53536, 
68.38078, 
67.38458, 
68.58199, 
73.13596, 
70.13003, 
67.50883, 
69.19887, 
67.85296, 
66.6824, 
65.54876, 
65.60379, 
70.13555, 
67.56863, 
65.72275, 
65.73169, 
68.40357, 
64.91767, 
67.85712, 
63.63047, 
62.39758, 
67.43009, 
63.85776, 
67.5832, 
62.1976, 
65.83256, 
64.48065, 
63.44078, 
62.54753, 
65.09971, 
62.68884, 
59.24897, 
62.9495, 
64.81887, 
60.66109, 
63.29996, 
65.18082, 
63.17108, 
61.81686, 
61.6812, 
66.69195, 
63.34099, 
63.01482, 
65.21066, 
61.40071, 
61.46174, 
61.09164, 
60.53644, 
61.23787, 
60.69967, 
62.97035, 
61.36127, 
59.9911, 
61.62036, 
61.67829, 
61.29086, 
63.43553, 
56.20948, 
61.06137, 
58.25373, 
62.53954, 
58.33448, 
58.16915, 
54.8297, 
59.50174, 
55.794, 
59.79965, 
55.60094, 
60.25672, 
55.85805, 
58.80428, 
57.32403, 
58.7112, 
57.64801, 
59.04665, 
55.48109, 
59.48458, 
56.99752, 
54.53308, 
60.82408, 
56.28887, 
55.80101, 
55.64267, 
56.38283, 
56.52062, 
57.37711, 
54.51022, 
56.00106, 
56.15422, 
54.93815, 
54.17878, 
57.77088, 
54.78329, 
56.55608, 
57.40736, 
58.47721, 
53.69958, 
55.88995, 
54.81263, 
53.88685, 
57.81951, 
54.01666, 
57.07933, 
54.36694, 
53.13898, 
51.21141, 
55.76903, 
53.72527, 
54.30419, 
53.16793, 
52.44996, 
51.73123, 
52.08236, 
53.51846, 
51.90654, 
53.06377, 
51.52415, 
52.46486, 
53.02247, 
51.95368, 
51.63065, 
51.34397, 
50.58747, 
55.80561, 
52.7015, 
52.20247, 
49.64575, 
52.69875, 
52.57336, 
52.43649, 
48.50167, 
49.63314, 
48.73195, 
50.42873, 
51.13836, 
50.92996, 
49.88214, 
50.11145, 
51.37197, 
51.08003, 
49.24983, 
50.00935, 
49.2542, 
51.61148, 
49.64771, 
48.86333, 
48.60868, 
46.60025, 
47.57908, 
49.22312, 
48.96748, 
47.04173, 
47.97734, 
47.45607, 
47.75983, 
46.76537, 
46.83754, 
48.88478, 
45.05007, 
46.88671, 
50.87433, 
46.51395, 
44.02529, 
45.8597, 
43.28682, 
46.87069, 
46.20598, 
44.74291, 
45.38806, 
47.26731, 
46.70528, 
45.97685, 
44.34269, 
44.95446, 
45.21339, 
48.93956, 
47.3476, 
45.42069, 
44.8313, 
46.34077, 
43.96426, 
45.91893, 
46.32938, 
43.39768, 
45.09173, 
44.7909, 
44.79938, 
44.5242, 
44.62328, 
42.99138, 
44.65028, 
42.01127, 
43.86659, 
44.19962, 
43.19125, 
44.9053, 
42.06423, 
39.61419, 
43.68271, 
45.53029, 
43.77884, 
45.43237, 
44.17084, 
42.56463, 
40.66091, 
42.58094, 
40.89426, 
42.02686, 
41.82, 
41.60654, 
42.99601, 
44.28756, 
41.86018, 
43.49375, 
41.95186, 
40.06348, 
42.80918, 
41.38367, 
41.43713, 
41.81806, 
41.50223, 
42.13441, 
38.60101, 
40.17441, 
40.49438, 
42.87738, 
42.69621, 
40.22976, 
39.4167, 
41.51747, 
41.20567, 
40.12273, 
41.00666, 
40.01914, 
38.87602, 
41.56404, 
38.88061, 
39.87099, 
41.83915, 
40.92981, 
41.17142, 
38.11038, 
40.71789, 
39.5113, 
38.39281, 
38.03071, 
36.34315, 
38.83535, 
37.83346, 
37.56094, 
37.75047, 
40.99394, 
38.90545, 
38.49422, 
37.14022, 
39.07375, 
37.09729, 
38.96894, 
35.60004, 
38.56717, 
40.01597, 
38.40771, 
37.87171, 
37.30535, 
35.30897, 
37.474, 
37.39532, 
36.77058, 
38.43449, 
37.13266, 
38.70669, 
35.68173, 
35.85938, 
36.94843, 
34.95117, 
36.67868, 
35.24778, 
34.92308, 
36.10063, 
37.66551, 
35.28866, 
36.20628, 
36.49178, 
34.47646, 
37.50159, 
34.80865, 
33.40425, 
34.81214, 
34.05213, 
34.28899, 
34.29573, 
36.52292, 
35.15177, 
33.22933, 
33.9187, 
35.71368, 
34.74945, 
35.29616, 
32.5332, 
33.56636, 
32.14088, 
31.26208, 
32.58641, 
33.42056, 
32.90609, 
33.02364, 
33.1001, 
35.12023, 
32.93176, 
33.37895, 
31.48066, 
30.2693, 
33.18552, 
32.92178, 
33.69602, 
34.61, 
31.40506, 
32.28368, 
33.24333, 
31.99988, 
33.35079, 
33.49556, 
33.42432, 
31.46063, 
32.70855, 
32.26125, 
32.38046, 
31.13398, 
31.05929, 
33.65582, 
31.11401, 
31.92288, 
31.84172, 
28.80472, 
32.85125, 
31.5245, 
29.51883, 
31.12352, 
31.06152, 
29.01555, 
31.16847, 
32.45706, 
29.84924, 
29.84228, 
28.8449, 
30.97253, 
30.04492, 
28.6953, 
32.98173, 
31.02886, 
30.34468, 
29.47669, 
29.31484, 
30.9829, 
31.39777, 
31.84702, 
29.36941, 
30.62019, 
28.95965, 
31.49293, 
28.54194, 
26.85277, 
28.67709, 
28.05356, 
28.40756, 
27.30964, 
26.75832, 
28.07666, 
28.18086, 
27.71941, 
26.5545, 
29.57855, 
28.99196, 
29.1085, 
28.02208, 
28.0391, 
28.19974, 
28.67471, 
25.92409, 
29.77995, 
27.85631, 
28.98906, 
28.08267, 
27.88766, 
27.94979, 
26.72991, 
25.92238, 
27.97802, 
27.93462, 
26.53786, 
28.36925, 
26.80469, 
26.74011, 
27.86252, 
27.23614, 
25.89982, 
26.10378, 
27.43364, 
25.69219, 
26.45935, 
26.4034, 
26.44896, 
26.10239, 
26.93384, 
25.32747, 
24.46447, 
25.36856, 
24.90969, 
24.76824, 
26.48902, 
25.24775, 
24.11308, 
25.57966, 
28.04539, 
26.55743, 
23.60648, 
23.69057, 
24.15068, 
26.09011, 
23.15249, 
24.52375, 
24.16718, 
22.3492, 
24.19994, 
24.15577, 
26.04981, 
25.89838, 
25.01695, 
24.88393, 
21.91417, 
23.20791, 
25.00615, 
24.69959, 
25.03518, 
23.98644, 
25.45814, 
25.87763, 
23.35543, 
24.81145, 
22.69818, 
24.82271, 
23.53947, 
23.98051, 
21.96252, 
21.49188, 
24.52124, 
25.31626, 
24.25937, 
21.30842, 
20.9781, 
22.79339, 
24.19345, 
23.63721, 
22.07342, 
23.23801, 
24.67394, 
23.30012, 
21.27007, 
23.16884, 
20.61741, 
22.96895, 
23.87065, 
21.65288, 
23.72751, 
23.07722, 
22.12535, 
21.35768, 
23.04979, 
22.03493, 
21.95688, 
22.12727, 
22.99064, 
20.78672, 
21.83342, 
21.81066, 
22.57183, 
20.85407, 
19.16599, 
21.37345, 
22.72998, 
21.03337, 
21.68784, 
20.73582, 
21.51573, 
21.54589, 
21.65619, 
21.98845, 
22.0452, 
17.96983, 
21.26347, 
19.84499, 
21.50199, 
20.17445, 
20.98176, 
20.44694, 
21.09211, 
19.66989, 
20.92773, 
18.70462, 
20.2302, 
21.34934, 
19.45916, 
20.93306, 
19.41275, 
20.26949, 
20.68019, 
19.60337, 
19.35036, 
21.37446, 
18.06015, 
20.28287, 
19.97239, 
20.5567, 
20.50135, 
19.05045, 
21.05911, 
19.03622, 
19.4829, 
17.11569, 
17.77028, 
20.19122, 
20.64057, 
18.72632, 
20.08629, 
18.92593, 
19.29297, 
17.48411, 
17.37458, 
18.53226, 
16.92744, 
18.47064, 
18.97843, 
19.21262, 
18.63545, 
19.51797, 
17.42029, 
18.8115, 
17.70004, 
18.27618, 
18.26737, 
19.30009, 
16.91772, 
16.06181, 
18.2974, 
18.2001, 
17.93906, 
18.18728, 
18.10909, 
17.25907, 
17.3801, 
16.97765, 
15.9174, 
18.0601, 
19.05704, 
17.70899, 
18.21366, 
17.17266, 
17.30723, 
15.79033, 
17.69174, 
15.95525, 
16.0174, 
18.20584, 
16.95097, 
17.53599, 
15.99745, 
16.79125, 
16.26461, 
16.46138, 
16.93616, 
16.02531, 
15.93952, 
17.17681, 
17.18139, 
16.88413, 
14.65926, 
15.53649, 
15.74384, 
15.56288, 
16.27785, 
16.55862, 
15.50022, 
15.84614, 
15.94924, 
17.66537, 
15.66469, 
14.2853, 
15.38269, 
16.78099, 
15.55235, 
15.51965, 
15.18849, 
15.89982, 
14.35387, 
16.35461, 
15.88716, 
16.57734, 
15.61698, 
16.47303, 
15.05066, 
14.36348, 
14.56736, 
16.59866, 
14.86058, 
15.35838, 
14.33242, 
13.34089, 
14.69297, 
15.46279, 
15.52602, 
14.80269, 
13.69654, 
15.20466, 
14.49822, 
13.04073, 
14.7954, 
14.04853, 
13.36561, 
13.84245, 
14.82584, 
14.96936, 
14.15903, 
14.12325, 
14.54863, 
13.88731, 
12.77625, 
15.41492, 
14.12631, 
13.74539, 
14.46183, 
13.84621, 
15.26462, 
13.44412, 
13.6291, 
13.40731, 
12.43192, 
13.34991, 
14.49102, 
13.9119, 
13.05524, 
12.34064, 
13.00401, 
12.12458, 
12.93992, 
13.39665, 
12.83631, 
15.52944, 
14.61528, 
12.83426, 
11.75923, 
14.35246, 
11.77414, 
14.74497, 
12.08768, 
13.01085, 
13.49413, 
12.37323, 
11.6162, 
13.16716, 
14.27287, 
12.01494, 
11.0931, 
13.06494, 
13.73728, 
12.88966, 
12.05847, 
12.05828, 
12.10983, 
12.48412, 
11.68882, 
11.95025, 
11.72616, 
12.66258, 
12.92971, 
12.00061, 
10.96214, 
12.06991, 
11.66152, 
12.83649, 
12.38479, 
12.59552, 
11.58357, 
11.35002, 
12.74977, 
12.04195, 
9.91624, 
11.81216, 
11.2384, 
12.57807, 
11.86819, 
11.18371, 
12.54822, 
12.06742, 
11.81599, 
10.93812, 
11.61995, 
10.75365, 
10.58428, 
11.16123, 
11.39165, 
11.12812, 
11.68978, 
10.99204, 
10.57814, 
10.05981, 
11.57659, 
11.64566, 
10.31856, 
10.75185, 
10.1791, 
10.15309, 
12.5062, 
12.12114, 
10.5354, 
11.16794, 
9.83025, 
10.34102, 
9.09548, 
11.45178, 
11.09501, 
10.68676, 
9.57407, 
10.34374, 
12.49725, 
10.91169, 
9.80193, 
9.77944, 
10.68959, 
9.50563, 
9.144, 
10.20327, 
9.71866, 
9.78463, 
9.59888, 
9.80902, 
9.78469, 
8.99065, 
10.4486, 
9.63917, 
10.19656, 
10.4838, 
10.32412, 
9.19125, 
9.60648, 
9.28134, 
9.13693, 
10.5501, 
9.52901, 
9.24711, 
8.5301, 
9.25597, 
9.13869, 
9.58894, 
9.09155, 
8.69664, 
10.18158, 
9.15524, 
9.38337, 
8.78342, 
9.29299, 
8.28169, 
9.3941, 
9.92447, 
9.26797, 
9.23273, 
9.31265, 
8.71309, 
8.49176, 
8.87851, 
9.87027, 
9.25687, 
8.46767, 
9.19586, 
8.04876, 
9.42771, 
8.2204, 
7.88917, 
8.35691, 
8.1484, 
8.42734, 
9.30219, 
7.74036, 
8.36226, 
8.4418, 
7.61629, 
8.05056, 
8.76475, 
9.0362, 
7.36787, 
7.50672, 
8.0002, 
8.25466, 
8.04745, 
6.6362, 
7.91748, 
7.66807, 
7.54164, 
8.51437, 
7.51531, 
8.27653, 
8.19068, 
6.4397, 
7.62272, 
7.48214, 
7.5074, 
8.13433, 
7.11965, 
6.7045, 
8.0091, 
6.8658, 
8.63738, 
6.7997, 
7.58161, 
6.29496, 
6.94667, 
6.65444, 
6.49574, 
7.37431, 
7.59778, 
7.18834, 
8.78455, 
7.91945, 
7.66272, 
6.58196, 
5.63087, 
6.47972, 
6.90581, 
7.24046, 
6.41659, 
6.77394, 
6.51911, 
6.35737, 
6.90286, 
6.60908, 
6.00503, 
6.6269, 
6.71247, 
7.41296, 
6.84237, 
6.87609, 
5.86781, 
5.6072, 
6.61838, 
6.62517, 
7.24867, 
6.12654, 
6.48767, 
6.98023, 
5.20421, 
6.1606, 
5.95486, 
6.69747, 
6.32428, 
6.4993, 
6.03921, 
6.57443, 
5.84424, 
6.16726, 
6.38442, 
7.20203, 
4.82456, 
6.2248, 
5.92855, 
6.20235, 
5.5579, 
5.24497, 
6.4533, 
5.54147, 
6.18983, 
7.11469, 
5.04644, 
4.63324, 
5.89885, 
5.00552, 
5.6723, 
5.15505, 
5.37373, 
4.60285, 
5.97404, 
6.02202, 
4.94402, 
6.16855, 
4.83037, 
5.57141, 
4.56381, 
4.28571, 
6.30861, 
5.61688, 
5.5219, 
5.12182, 
4.59788, 
4.52418, 
5.37734, 
4.34684, 
5.26833, 
4.76831, 
5.08404, 
4.84535, 
5.50677, 
5.78627, 
4.46006, 
5.693, 
5.40832, 
3.96688, 
5.13703, 
5.35627, 
4.86104, 
4.15117, 
4.50799, 
4.55365, 
4.79466, 
4.88768, 
4.67526, 
4.40493, 
4.55863, 
3.90814, 
4.51034, 
4.27319, 
4.62, 
5.09788, 
4.3497, 
4.1568, 
3.79522, 
3.944, 
4.45259, 
3.66716, 
3.83496, 
4.66903, 
3.59771, 
3.74411, 
4.04542, 
4.04051, 
4.22959, 
4.40473, 
3.75052, 
4.26148, 
3.92747, 
3.48348, 
3.39544, 
3.4792, 
4.29034, 
4.05088, 
3.64445, 
3.79825, 
4.36311, 
3.07801, 
3.39983, 
3.98522, 
3.49718, 
4.19509, 
3.3027, 
3.47836, 
3.59003, 
4.107, 
2.68667, 
3.3152, 
3.74732, 
3.32384, 
3.37813, 
3.72505, 
3.46571, 
3.07322, 
3.39171, 
3.49942, 
3.68553, 
3.55584, 
3.61888, 
3.04049, 
3.3755, 
2.54243, 
2.63141, 
2.77147, 
3.29795, 
3.50624, 
3.11413, 
2.95236, 
2.96901, 
2.69955, 
2.97818, 
2.28125, 
2.95845, 
3.1223, 
3.49802, 
3.04121, 
2.90801, 
3.33808, 
2.63416, 
2.7784, 
2.8963, 
2.55137, 
2.60312, 
2.44897, 
2.0845, 
2.64273, 
2.80225, 
2.67553, 
2.17656, 
2.16613, 
2.3401, 
2.1614, 
2.39538, 
2.01941, 
2.2468, 
2.44206, 
2.71525, 
2.48568, 
2.07555, 
1.97847, 
2.32888, 
2.27554, 
3.14145, 
1.76614, 
2.40404, 
2.40101, 
2.53379, 
2.11038, 
2.38082, 
2.66987, 
2.26549, 
2.38469, 
2.31445, 
2.3116, 
2.18826, 
2.0305, 
1.7037, 
1.87335, 
1.82903, 
2.07293, 
1.96452, 
2.02268, 
1.84653, 
1.99853, 
1.56641, 
1.71857, 
1.33302, 
1.65971, 
1.60128, 
1.20355, 
2.00622, 
2.1909, 
1.59575, 
1.66126, 
1.60445, 
1.61676, 
2.16314, 
1.38282, 
1.6862, 
1.67931, 
1.68648, 
1.24383, 
1.59858, 
1.47632, 
1.42819, 
1.24517, 
1.01292, 
1.54812, 
1.77155, 
1.21266, 
1.46699, 
1.3351, 
1.1956, 
1.13902, 
1.3937, 
1.28176, 
1.59529, 
1.37514, 
1.36688, 
1.26863, 
1.29096, 
1.12717, 
0.64908, 
1.07128, 
0.88453, 
1.0687, 
0.80144, 
1.43262, 
1.05455, 
1.21467, 
1.08135, 
1.09866, 
0.95111, 
1.18868, 
0.9677, 
1.12382, 
0.94521, 
0.99995, 
1.0904, 
0.87756, 
0.61545, 
0.83186, 
0.90997, 
0.79767, 
1.03301, 
0.75433, 
0.72521, 
0.85181, 
0.48788, 
0.70573, 
0.8894, 
0.45225, 
0.76688, 
0.69696, 
0.77134, 
0.74351, 
0.66871, 
0.65469, 
0.79992, 
0.58001, 
0.80435, 
0.6563, 
0.55394, 
0.53942, 
0.85105, 
0.34437, 
0.62812, 
0.3363, 
0.32461, 
0.30961, 
0.40936, 
0.24665, 
0.47228, 
0.30239, 
0.43077, 
0.38086, 
0.32287, 
0.29022, 
0.3391, 
0.2139, 
0.26736, 
0.25416, 
0.30202, 
0.2926, 
0.23487, 
0.23589, 
0.23511, 
0.19164, 
0.26167, 
0.07252, 
0.14014, 
0.19469, 
0.21033, 
0.14687, 
0.14888, 
0.14871, 
0.1156, 
0.06438, 
0.05011, 
0.08839, 
0.03945, 
0.06209, 
0.02569, 
0.02104, 
0.02448, 
0.01857, 
0.00102, 
0.00222, 
0, 
0, 
0, 
0, 
0, 
0, 
0, 
0, 
0, 
0, 
0, 
0, 
0, 
0, 
0, 
0, 
0, 
0, 
0, 
0, 
0, 
0, 
0, 
0, 
0, 
0, 
0, 
0, 
0, 
0, 
0, 
0, 
0, 
0, 
0, 
0, 
0, 
0, 
0, 
0, 
0, 
0, 
0, 
0, 
0, 
0, 
0, 
0, 
0, 
#ENDOFDATA   : 
